LabVIEW Measurement	
Writer_Version	2
Reader_Version	2
Separator	Tab
Decimal_Separator	.
Multi_Headings	Yes
X_Columns	No
Time_Pref	Relative
Operator	stud40
Date	2023/03/21
Time	18:46:09.7756772041320800781
***End_of_Header***	
	
Channels	4				
Samples	1000	1000	1000	1000	
Date	2023/03/21	2023/03/21	2023/03/21	2023/03/21	
Time	18:46:09.7756772041320800781	18:46:09.7756772041320800781	18:46:09.7756772041320800781	18:46:09.7756772041320800781	
X_Dimension	Time	Time	Time	Time	
X0	0.0000000000000000E+0	0.0000000000000000E+0	0.0000000000000000E+0	0.0000000000000000E+0	
Delta_X	1.000000	1.000000	1.000000	1.000000	
***End_of_Header***					
X_Value	Untitled	Untitled 1	Untitled 2	Untitled 3	Comment
	0.000510	0.000000	3.303199E-5	-0.286684
	0.000148	0.100000	-1.523744E-5	-0.294963
	9.228391E-5	0.200000	1.259005E-5	-0.303433
	9.557425E-5	0.300000	1.819504E-5	-0.311854
	0.000362	0.400000	-1.985349E-5	-0.321415
	0.000615	0.500000	-1.470989E-5	-0.328263
	0.000606	0.600000	6.231040E-5	-0.338502
	0.000428	0.700000	2.742698E-5	-0.345803
	0.000175	0.800000	1.786531E-5	-0.349884
	0.000306	0.900000	4.978110E-5	-0.363953
	0.000250	1.000000	1.390899E-5	-0.368601
	0.000329	1.100000	5.666166E-6	-0.378219
	0.000365	1.200000	-1.405038E-5	-0.382796
	0.000254	1.300000	5.241908E-5	-0.392518
	0.000178	1.400000	3.421891E-5	-0.397357
	0.000309	1.500000	5.327609E-5	-0.405341
	0.000240	1.600000	4.318701E-5	-0.413865
	0.000247	1.700000	2.887782E-5	-0.420473
	0.000260	1.800000	-5.675895E-6	-0.427223
	0.000221	1.900000	5.797942E-6	-0.434941
	0.000296	2.000000	4.259356E-5	-0.439779
	0.000326	2.100000	6.127641E-6	-0.447288
	0.000309	2.200000	2.769079E-5	-0.454719
	0.000267	2.300000	4.568023E-7	-0.459187
	0.000273	2.400000	-1.299539E-5	-0.465335
	0.000191	2.500000	4.101112E-5	-0.470057
	0.000352	2.600000	5.499060E-5	-0.477644
	0.000382	2.700000	3.975802E-5	-0.483507
	0.000339	2.800000	3.290000E-5	-0.487372
	0.000267	2.900000	1.973384E-6	-0.493286
	0.000198	3.000000	1.707418E-5	-0.499776
	0.000339	3.100000	3.059207E-5	-0.505178
	0.000260	3.200000	1.364511E-5	-0.510546
	0.000326	3.300000	2.171307E-6	-0.513610
	0.000306	3.400000	-5.543975E-6	-0.519052
	0.000306	3.500000	3.448266E-5	-0.526216
	0.000332	3.600000	5.545227E-5	-0.529698
	0.000349	3.700000	2.538274E-5	-0.533762
	0.000356	3.800000	-7.785937E-6	-0.537958
	0.000263	3.900000	3.586743E-5	-0.541527
	0.000336	4.000000	-1.587308E-6	-0.548471
	0.000296	4.100000	1.153495E-5	-0.551736
	0.000306	4.200000	2.010729E-5	-0.556858
	0.000250	4.300000	3.283421E-5	-0.558256
	0.000257	4.400000	2.353619E-5	-0.565314
	0.000319	4.500000	5.024294E-5	-0.565654
	0.000332	4.600000	4.556094E-5	-0.570109
	0.000194	4.700000	4.305515E-5	-0.575122
	0.000221	4.800000	1.305154E-5	-0.577940
	0.000303	4.900000	3.454860E-5	-0.579436
	0.000201	5.000000	-2.246780E-6	-0.584102
	0.000221	5.100000	-3.697592E-6	-0.584601
	0.000244	5.200000	2.788838E-5	-0.586468
	0.000339	5.300000	1.270442E-7	-0.587995
	0.000138	5.400000	3.226482E-6	-0.590710
	0.000138	5.500000	-1.002779E-5	-0.594765
	0.000230	5.600000	1.799705E-5	-0.598395
	0.000217	5.700000	2.070087E-5	-0.599273
	0.000194	5.800000	1.298557E-5	-0.600097
	0.000191	5.900000	1.928135E-7	-0.602433
	0.000207	6.000000	3.646097E-5	-0.604658
	0.000198	6.100000	-4.159195E-6	-0.607386
	0.000211	6.200000	4.694545E-5	-0.608093
	0.000138	6.300000	-1.424794E-5	-0.610147
	0.000161	6.400000	-3.236019E-6	-0.612013
	0.000306	6.500000	-6.532908E-6	-0.610820
	0.000184	6.600000	-1.708356E-5	-0.611071
	0.000234	6.700000	1.160109E-5	-0.614553
	0.000198	6.800000	2.103043E-5	-0.616109
	0.000227	6.900000	3.013067E-5	-0.617479
	0.000224	7.000000	6.587127E-5	-0.617332
	0.000323	7.100000	2.004159E-5	-0.617974
	0.000250	7.200000	4.226386E-5	-0.618753
	0.000201	7.300000	-1.332490E-5	-0.618813
	0.000250	7.400000	-2.994224E-5	-0.612975
	0.000221	7.500000	2.551478E-5	-0.612372
	0.000161	7.600000	-1.259984E-5	-0.613109
	0.000211	7.700000	-3.633893E-5	-0.613446
	0.000309	7.800000	5.103427E-5	-0.609620
	0.000329	7.900000	2.333879E-5	-0.611209
	0.000359	8.000000	2.050276E-5	-0.610653
	0.000428	8.100000	3.751559E-5	-0.612680
	0.000273	8.200000	3.797777E-5	-0.612113
	0.000385	8.300000	3.342741E-5	-0.610722
	0.000326	8.400000	5.624338E-5	-0.610417
	0.000300	8.500000	6.457254E-6	-0.608730
	0.000369	8.600000	-3.178887E-5	-0.611183
	0.000303	8.700000	5.545198E-5	-0.608904
	0.000339	8.800000	-2.479900E-5	-0.615688
	0.000250	8.900000	1.516161E-5	-0.614087
	0.000161	9.000000	8.369561E-6	-0.614560
	0.000138	9.100000	2.544888E-5	-0.617739
	0.000313	9.200000	1.535953E-5	-0.619965
	0.000263	9.300000	-5.675768E-6	-0.620169
	0.000214	9.400000	2.347061E-5	-0.619086
	0.000270	9.500000	7.446581E-6	-0.617944
	0.000254	9.600000	5.558396E-5	-0.616597
	0.000240	9.700000	1.648064E-5	-0.615381
	0.000201	9.800000	-3.433687E-6	-0.614306
	0.000234	9.900000	4.285740E-5	-0.615753
	9.432173	10.000000	5.828769E-5	-0.613200
	10.005231	10.100000	4.008760E-5	-0.611241
	10.003185	10.200000	7.116779E-6	-0.610964
	10.003254	10.300000	2.597626E-5	-0.609921
	10.003320	10.400000	2.347071E-5	-0.608503
	10.003316	10.500000	1.364507E-5	-0.607534
	10.003109	10.600000	4.391241E-5	-0.608480
	10.002889	10.700000	6.804717E-5	-0.606150
	10.003007	10.800000	3.876907E-5	-0.607909
	10.003001	10.900000	2.986691E-5	-0.608440
	2.981021	11.000000	2.587625E-7	-0.607179
	0.000856	11.100000	3.929650E-5	-0.605283
	4.621916E-5	11.200000	6.204685E-5	-0.605240
	2.647712E-5	11.300000	5.261678E-5	-0.602390
	0.000306	11.400000	2.940522E-5	-0.604966
	0.000300	11.500000	-6.269270E-6	-0.601093
	0.000346	11.600000	1.272207E-5	-0.601092
	0.000296	11.700000	2.056900E-5	-0.600836
	0.000356	11.800000	1.463420E-5	-0.599093
	0.000332	11.900000	3.160441E-6	-0.596645
	0.000415	12.000000	5.413354E-5	-0.596194
	0.000346	12.100000	-4.950459E-6	-0.596353
	0.000431	12.200000	1.575541E-5	-0.594291
	0.000336	12.300000	1.034836E-5	-0.595893
	0.000438	12.400000	-1.853449E-5	-0.592061
	0.000484	12.500000	1.971189E-5	-0.591952
	0.000421	12.600000	3.309811E-5	-0.591957
	0.000342	12.700000	-1.978730E-5	-0.589817
	0.000332	12.800000	-7.851746E-6	-0.588517
	0.000385	12.900000	6.962988E-5	-0.588034
	0.000319	13.000000	1.445923E-6	-0.588924
	0.000339	13.100000	1.351307E-5	-0.588255
	0.000375	13.200000	4.608859E-5	-0.587235
	0.000392	13.300000	-2.687616E-7	-0.586668
	0.000464	13.400000	5.204536E-6	-0.587395
	0.000454	13.500000	-2.915106E-5	-0.586033
	0.000273	13.600000	3.995589E-5	-0.587629
	0.000372	13.700000	2.017331E-5	-0.586830
	0.000477	13.800000	3.797749E-5	-0.585746
	0.000444	13.900000	-1.253408E-5	-0.587181
	0.000415	14.000000	-7.126588E-6	-0.586929
	0.000395	14.100000	6.919109E-6	-0.585051
	0.000461	14.200000	4.892407E-5	-0.585586
	0.000523	14.300000	2.821839E-5	-0.583332
	0.000454	14.400000	4.793489E-5	-0.587161
	0.000464	14.500000	2.175583E-5	-0.584336
	0.000421	14.600000	5.551840E-5	-0.584734
	0.000428	14.700000	3.257043E-5	-0.585180
	0.000481	14.800000	1.232628E-5	-0.584393
	0.000530	14.900000	3.428472E-5	-0.584200
	0.000500	15.000000	1.892039E-5	-0.582644
	0.000477	15.100000	2.327280E-5	-0.584022
	0.000553	15.200000	-0.000117	-0.583240
	0.000464	15.300000	-5.148234E-6	-0.583782
	0.000451	15.400000	-7.060591E-6	-0.582327
	0.000536	15.500000	-1.653373E-6	-0.580781
	0.000402	15.600000	-1.708385E-5	-0.581685
	0.000362	15.700000	-7.324281E-6	-0.582992
	0.000336	15.800000	1.173300E-5	-0.585281
	0.000379	15.900000	-2.328216E-5	-0.582264
	0.000349	16.000000	2.933941E-5	-0.582193
	0.000280	16.100000	1.872253E-5	-0.582396
	0.000365	16.200000	4.628631E-5	-0.580707
	0.000388	16.300000	2.973485E-5	-0.580455
	0.000326	16.400000	2.953706E-5	-0.580871
	0.000332	16.500000	4.470382E-5	-0.580048
	0.000385	16.600000	6.626691E-5	-0.577755
	0.000303	16.700000	-2.624987E-5	-0.578351
	0.000352	16.800000	2.920769E-5	-0.575131
	0.000293	16.900000	-9.632176E-6	-0.576551
	0.000352	17.000000	3.388932E-5	-0.574419
	0.000382	17.100000	3.573578E-5	-0.575116
	0.000467	17.200000	1.522796E-5	-0.575296
	0.000474	17.300000	2.841613E-5	-0.574539
	0.000490	17.400000	3.619713E-5	-0.571205
	0.000395	17.500000	3.342764E-5	-0.570269
	0.000398	17.600000	5.571626E-5	-0.570163
	0.000369	17.700000	5.090231E-5	-0.569910
	0.000349	17.800000	1.193082E-5	-0.567836
	0.000375	17.900000	3.692274E-5	-0.566945
	0.000451	18.000000	3.771410E-5	-0.566407
	0.000283	18.100000	2.940521E-5	-0.565686
	0.000431	18.200000	2.624008E-5	-0.563116
	0.000536	18.300000	4.874963E-6	-0.565234
	0.000388	18.400000	-5.321867E-7	-0.562991
	0.000533	18.500000	1.305183E-5	-0.563674
	0.000425	18.600000	1.265603E-5	-0.559233
	0.000369	18.700000	-7.918051E-6	-0.557750
	0.000356	18.800000	7.710390E-6	-0.557773
	0.000362	18.900000	-4.686614E-6	-0.558091
	0.000392	19.000000	6.457560E-6	-0.555895
	0.000415	19.100000	6.798134E-5	-0.553553
	0.000418	19.200000	-2.576537E-6	-0.552160
	0.000467	19.300000	5.090243E-5	-0.551471
	0.000461	19.400000	-1.978712E-5	-0.549749
	0.000421	19.500000	1.971197E-5	-0.548458
	0.000323	19.600000	1.314011E-6	-0.546124
	0.000388	19.700000	4.206605E-5	-0.545602
	0.000481	19.800000	2.030526E-5	-0.544863
	0.000398	19.900000	7.206865E-7	-0.544393
	0.000431	20.000000	2.281120E-5	-0.542151
	0.000434	20.100000	1.450249E-5	-0.540322
	0.000517	20.200000	1.951402E-5	-0.539730
	0.000451	20.300000	1.608519E-5	-0.537519
	0.000507	20.400000	-4.291140E-6	-0.537448
	0.000408	20.500000	-1.141269E-5	-0.538036
	0.000484	20.600000	-9.764164E-6	-0.534657
	0.000408	20.700000	8.524594E-7	-0.532871
	0.000411	20.800000	8.699519E-6	-0.531416
	0.000161	20.900000	2.676757E-5	-0.532008
	0.000523	21.000000	4.417635E-5	-0.528028
	0.000461	21.100000	4.114289E-5	-0.528197
	0.000602	21.200000	1.371121E-5	-0.526883
	0.000527	21.300000	1.720590E-5	-0.527141
	0.000418	21.400000	1.806339E-5	-0.524496
	0.000467	21.500000	2.050315E-5	-0.522505
	0.000490	21.600000	1.542563E-5	-0.520820
	0.000536	21.700000	4.127466E-5	-0.517401
	0.000148	21.800000	7.710425E-6	-0.515987
	0.000563	21.900000	6.765164E-5	-0.516799
	0.000560	22.000000	3.322994E-5	-0.516277
	0.000461	22.100000	1.001850E-5	-0.513799
	0.000566	22.200000	3.171324E-5	-0.511925
	0.000504	22.300000	2.617407E-5	-0.508657
	0.000494	22.400000	1.061217E-5	-0.509297
	0.000550	22.500000	1.760172E-5	-0.504741
	0.000589	22.600000	-1.306095E-5	-0.506109
	0.000500	22.700000	6.061780E-6	-0.502020
	0.000487	22.800000	7.512630E-6	-0.500590
	0.000599	22.900000	4.727565E-5	-0.500406
	0.000583	23.000000	5.070434E-5	-0.499127
	0.000569	23.100000	1.714016E-5	-0.497416
	0.000158	23.200000	3.028570E-6	-0.495699
	0.000135	23.300000	2.729490E-5	-0.494508
	4.950950E-5	23.400000	3.863717E-5	-0.494745
	7.583221E-5	23.500000	5.228708E-5	-0.490625
	0.000257	23.600000	3.415312E-5	-0.488952
	0.000464	23.700000	-4.663781E-7	-0.486196
	0.000536	23.800000	5.386978E-5	-0.484364
	0.000425	23.900000	1.021621E-5	-0.483019
	0.000415	24.000000	1.577860E-6	-0.481402
	0.000461	24.100000	1.390880E-5	-0.480748
	0.000504	24.200000	9.161164E-6	-0.477256
	0.000513	24.300000	3.810955E-5	-0.475637
	0.000418	24.400000	2.900982E-5	-0.473253
	0.000415	24.500000	2.340462E-5	-0.474133
	0.000536	24.600000	3.197688E-5	-0.472896
	0.000448	24.700000	2.208569E-5	-0.469774
	0.000477	24.800000	2.353643E-5	-0.469442
	0.000477	24.900000	-6.664911E-6	-0.467368
	0.000500	25.000000	-4.820820E-5	-0.463447
	0.000418	25.100000	4.905594E-5	-0.462041
	0.000507	25.200000	-1.455446E-6	-0.460688
	0.000543	25.300000	1.516190E-5	-0.459411
	0.000497	25.400000	-6.928651E-6	-0.456401
	0.000471	25.500000	1.437060E-5	-0.457608
	0.000556	25.600000	6.259718E-6	-0.456032
	0.000408	25.700000	3.560381E-5	-0.452730
	0.000467	25.800000	5.558382E-5	-0.452838
	0.000477	25.900000	2.498716E-5	-0.449379
	0.000481	26.000000	3.665886E-5	-0.447921
	0.000566	26.100000	2.050318E-5	-0.446484
	0.000513	26.200000	4.523137E-5	-0.447267
	9.557425E-5	26.300000	1.160109E-5	-0.441782
	0.000411	26.400000	1.305192E-5	-0.440169
	0.000553	26.500000	-4.686659E-6	-0.439101
	0.000454	26.600000	2.584466E-5	-0.439046
	0.000128	26.700000	3.316400E-5	-0.437894
	0.000224	26.800000	2.973505E-5	-0.435124
	0.000569	26.900000	-1.240166E-5	-0.433165
	0.000408	27.000000	7.248901E-6	-0.431753
	-2.287798E-5	27.100000	5.241925E-5	-0.432376
	6.735081E-6	27.200000	-7.324146E-6	-0.429572
	0.000382	27.300000	-2.598591E-5	-0.427924
	0.000615	27.400000	2.999884E-5	-0.424890
	8.241289E-5	27.500000	2.551454E-5	-0.424701
	0.000109	27.600000	3.685662E-5	-0.421592
	4.621916E-5	27.700000	4.940936E-6	-0.420455
	2.647712E-5	27.800000	-3.499593E-6	-0.417733
	5.938052E-5	27.900000	1.489814E-5	-0.416736
	0.000122	28.000000	2.999890E-5	-0.417298
	0.000214	28.100000	7.512586E-6	-0.413549
	0.000105	28.200000	3.969217E-5	-0.412619
	8.570323E-5	28.300000	-4.093095E-6	-0.409585
	0.000270	28.400000	-2.605157E-5	-0.410051
	0.000178	28.500000	6.679438E-5	-0.408558
	0.000119	28.600000	2.254718E-5	-0.403977
	0.000217	28.700000	4.397838E-5	-0.402458
	0.000158	28.800000	2.986688E-5	-0.402619
	0.000158	28.900000	1.034797E-5	-0.400340
	0.000504	29.000000	-1.059915E-6	-0.398798
	0.000560	29.100000	2.848219E-5	-0.396674
	0.000556	29.200000	-1.035782E-5	-0.394258
	0.000629	29.300000	4.940698E-6	-0.392247
	0.000523	29.400000	1.113955E-5	-0.392850
	0.000461	29.500000	1.555764E-5	-0.389780
	0.000520	29.600000	3.138351E-5	-0.387342
	0.000497	29.700000	3.349372E-5	-0.383971
	8.899357E-5	29.800000	2.063512E-5	-0.385961
	4.950950E-5	29.900000	4.186820E-5	-0.383654
	-9.197511E-5	30.000000	1.502984E-5	-0.381057
	0.000405	30.100000	2.914164E-5	-0.377261
	0.000481	30.200000	1.905232E-5	-0.377615
	0.000536	30.300000	-1.391846E-5	-0.375681
	0.000517	30.400000	1.615097E-5	-0.373253
	0.000490	30.500000	5.268283E-5	-0.370890
	0.000474	30.600000	4.674795E-5	-0.372467
	0.000510	30.700000	8.567646E-6	-0.369897
	1.002542E-5	30.800000	4.707768E-5	-0.366466
	7.583221E-5	30.900000	1.324961E-5	-0.366426
	9.886459E-5	31.000000	3.909883E-5	-0.363944
	7.254187E-5	31.100000	1.483206E-5	-0.361369
	0.000138	31.200000	-1.367456E-7	-0.363689
	0.000135	31.300000	4.272566E-5	-0.360818
	0.000293	31.400000	-1.444613E-5	-0.356996
	0.000513	31.500000	1.753576E-5	-0.360098
	0.000543	31.600000	5.261662E-5	-0.354838
	0.000510	31.700000	5.367199E-5	-0.353809
	0.000332	31.800000	4.661598E-5	-0.351580
	7.583221E-5	31.900000	3.125167E-5	-0.349498
	0.000309	32.000000	1.733800E-5	-0.349080
	0.000553	32.100000	-1.125784E-6	-0.348872
	0.000520	32.200000	5.815594E-5	-0.345979
	0.000451	32.300000	2.643801E-5	-0.346400
	0.000560	32.400000	-4.291086E-6	-0.343416
	0.000448	32.500000	1.410696E-5	-0.341843
	0.000563	32.600000	1.021642E-5	-0.339134
	0.000530	32.700000	3.956036E-5	-0.337734
	0.000546	32.800000	3.059234E-5	-0.337499
	0.000569	32.900000	2.689952E-5	-0.334751
	0.000490	33.000000	5.545234E-5	-0.331958
	0.000530	33.100000	5.468392E-6	-0.332812
	0.000517	33.200000	3.415309E-5	-0.332646
	0.000444	33.300000	1.450252E-5	-0.329119
	0.000500	33.400000	1.048007E-5	-0.327224
	0.000477	33.500000	3.079012E-5	-0.324912
	0.000411	33.600000	2.584459E-5	-0.326240
	0.000448	33.700000	3.441697E-5	-0.323990
	0.000471	33.800000	1.957999E-5	-0.320878
	0.000448	33.900000	1.601920E-5	-0.318314
	0.000438	34.000000	7.842150E-6	-0.318457
	0.000494	34.100000	1.648067E-5	-0.316181
	0.000566	34.200000	5.241910E-5	-0.315596
	0.000448	34.300000	2.656965E-5	-0.313928
	0.000500	34.400000	3.942845E-5	-0.312376
	0.000507	34.500000	9.952596E-6	-0.312119
	0.000596	34.600000	-1.385249E-5	-0.310401
	0.000494	34.700000	3.421896E-5	-0.309191
	0.000517	34.800000	1.681037E-5	-0.305655
	0.000606	34.900000	4.753923E-5	-0.304532
	0.000553	35.000000	2.566844E-6	-0.302542
	0.000500	35.100000	9.952672E-6	-0.302327
	0.000556	35.200000	3.659288E-5	-0.300248
	0.000550	35.300000	-1.741336E-5	-0.297990
	0.000553	35.400000	-1.543519E-5	-0.298569
	0.000520	35.500000	3.336179E-5	-0.295013
	0.000230	35.600000	1.542573E-5	-0.295209
	8.570323E-5	35.700000	7.398216E-5	-0.292367
	0.000175	35.800000	1.905256E-5	-0.291400
	0.000563	35.900000	1.278790E-5	-0.291020
	0.000589	36.000000	2.907544E-5	-0.288518
	0.000612	36.100000	1.153519E-5	-0.286467
	0.000533	36.200000	4.819867E-5	-0.285012
	0.000612	36.300000	1.107344E-5	-0.282807
	0.000701	36.400000	3.026247E-5	-0.284884
	0.000579	36.500000	2.445985E-5	-0.280631
	4.950950E-5	36.600000	-2.967852E-5	-0.279901
	5.938052E-5	36.700000	3.184535E-5	-0.279874
	7.254187E-5	36.800000	1.535963E-5	-0.277241
	3.305780E-5	36.900000	4.951777E-5	-0.277569
	4.292882E-5	37.000000	3.560386E-5	-0.274413
	6.596119E-5	37.100000	3.560363E-5	-0.275870
	2.647712E-5	37.200000	2.795458E-5	-0.273328
	0.000332	37.300000	1.931641E-5	-0.271794
	0.000497	37.400000	1.380091E-6	-0.269394
	0.000560	37.500000	2.050313E-5	-0.267061
	0.000573	37.600000	3.375750E-5	-0.264155
	0.000553	37.700000	-6.137330E-6	-0.265877
	0.000520	37.800000	5.090225E-5	-0.262817
	0.000530	37.900000	4.318727E-5	-0.262519
	0.000434	38.000000	-6.862585E-6	-0.262477
	0.000379	38.100000	1.681043E-5	-0.258872
	0.000352	38.200000	-3.344415E-7	-0.258751
	0.000477	38.300000	5.367179E-5	-0.259302
	0.000474	38.400000	1.127133E-5	-0.256249
	0.000487	38.500000	-2.915102E-5	-0.253666
	0.000517	38.600000	5.600313E-6	-0.254468
	0.000527	38.700000	2.452572E-5	-0.251587
	0.000497	38.800000	3.613143E-5	-0.250071
	0.000533	38.900000	5.479291E-5	-0.247043
	0.000477	39.000000	3.375756E-5	-0.248352
	0.000458	39.100000	1.133726E-5	-0.246041
	0.000481	39.200000	7.536692E-5	-0.245231
	0.000458	39.300000	1.615120E-5	-0.241782
	0.000444	39.400000	2.854802E-5	-0.241421
	0.000550	39.500000	1.094154E-5	-0.239850
	0.000500	39.600000	-8.379348E-6	-0.239913
	0.000402	39.700000	1.219467E-5	-0.235409
	0.000425	39.800000	-2.169976E-5	-0.232787
	0.000418	39.900000	2.927341E-5	-0.229895
	0.000474	40.000000	-1.521398E-6	-0.228003
	0.000431	40.100000	1.278788E-5	-0.225837
	0.000415	40.200000	1.733822E-5	-0.222598
	0.000329	40.300000	3.885961E-6	-0.222684
	0.000306	40.400000	-2.453506E-5	-0.221584
	0.000467	40.500000	2.914164E-5	-0.218839
	0.000448	40.600000	-7.521947E-6	-0.218667
	0.000474	40.700000	5.229887E-7	-0.218249
	0.000395	40.800000	2.419594E-5	-0.216663
	0.000359	40.900000	-1.068719E-5	-0.216638
	0.000438	41.000000	9.227055E-6	-0.214427
	0.000418	41.100000	2.004146E-5	-0.212636
	0.000454	41.200000	1.973443E-6	-0.210138
	0.000398	41.300000	-3.897645E-5	-0.212074
	0.000448	41.400000	-1.602851E-5	-0.209913
	0.000359	41.500000	5.103415E-5	-0.207849
	0.000385	41.600000	-4.814201E-5	-0.205811
	0.000477	41.700000	1.380060E-6	-0.208797
	0.000438	41.800000	2.171321E-6	-0.205636
	0.000513	41.900000	1.694218E-5	-0.203908
	0.000602	42.000000	1.160110E-5	-0.201926
	0.000458	42.100000	4.562718E-5	-0.200037
	0.000527	42.200000	1.522784E-5	-0.199452
	0.000530	42.300000	3.876916E-5	-0.198599
	0.000560	42.400000	2.083285E-5	-0.197762
	0.000553	42.500000	-1.128079E-5	-0.196837
	0.000326	42.600000	1.166703E-5	-0.198687
	0.000125	42.700000	1.380087E-6	-0.194363
	0.000109	42.800000	3.138366E-5	-0.193290
	0.000105	42.900000	3.490152E-6	-0.191444
	9.228391E-5	43.000000	3.837337E-5	-0.189240
	1.002542E-5	43.100000	1.740408E-5	-0.188365
	0.000490	43.200000	1.331565E-5	-0.189211
	0.000497	43.300000	6.811300E-5	-0.185519
	0.000497	43.400000	-2.774269E-6	-0.184569
	0.000510	43.500000	4.885815E-5	-0.181622
	0.000323	43.600000	2.472362E-5	-0.180288
	-2.616832E-5	43.700000	2.182209E-5	-0.179463
	0.000385	43.800000	2.254742E-5	-0.176170
	0.000421	43.900000	4.793511E-5	-0.176953
	2.647712E-5	44.000000	-4.550412E-5	-0.175176
	0.000316	44.100000	2.037142E-5	-0.175909
	0.000425	44.200000	1.648069E-5	-0.173071
	0.000500	44.300000	-4.818419E-6	-0.172474
	0.000504	44.400000	4.479468E-6	-0.173836
